PE FL                   SPECTRUM    ASCII       PEDS        1.60        
  -1
SALICILATOEM.SP
16/05/04
11:18:47.00
16/05/04
11:19:08.00


550.500000
1









LS55
348.00
2.50
2.50
SCAN
1
16
100
100
0
1200
0
1
0
1
7
ON
600 348 
1 0 0
#HDR
-1
-1
#GR
NM
INT 
0.00002384185791015625
0.0
355.000000
0.500000
392
8
554.083999
-1.587000
#DATA
355.000000	18.558000  
355.500000	9.661000   
356.000000	20.399000  
356.500000	15.678000  
357.000000	10.168000  
357.500000	16.545000  
358.000000	16.065000  
358.500000	15.432000  
359.000000	12.069000  
359.500000	21.660000  
360.000000	19.630000  
360.500000	20.388000  
361.000000	21.190000  
361.500000	22.925000  
362.000000	36.058000  
362.500000	23.005000  
363.000000	26.844000  
363.500000	43.461000  
364.000000	47.933000  
364.500000	58.730000  
365.000000	37.959000  
365.500000	44.787000  
366.000000	49.269000  
366.500000	59.661000  
367.000000	40.132000  
367.500000	48.828000  
368.000000	74.736000  
368.500000	56.841000  
369.000000	73.423000  
369.500000	69.854000  
370.000000	79.135000  
370.500000	75.105000  
371.000000	85.621000  
371.500000	112.058000 
372.000000	88.593999  
372.500000	106.143000 
373.000000	85.631000  
373.500000	93.877000  
374.000000	124.499000 
374.500000	126.394000 
375.000000	134.624000 
375.500000	136.522000 
376.000000	159.585000 
376.500000	163.857000 
377.000000	119.674000 
377.500000	138.924000 
378.000000	163.940000 
378.500000	163.205000 
379.000000	187.054000 
379.500000	192.143000 
380.000000	194.479000 
380.500000	157.603000 
381.000000	206.117000 
381.500000	225.078000 
382.000000	193.243000 
382.500000	234.445000 
383.000000	261.071000 
383.500000	252.665000 
384.000000	235.547000 
384.500000	254.467000 
385.000000	277.226000 
385.500000	228.446000 
386.000000	307.360000 
386.500000	300.655000 
387.000000	292.047000 
387.500000	297.113000 
388.000000	324.428000 
388.500000	328.894000 
389.000000	357.713000 
389.500000	316.376000 
390.000000	308.275000 
390.500000	322.856000 
391.000000	291.354000 
391.500000	360.448000 
392.000000	393.428000 
392.500000	368.639000 
393.000000	370.347000 
393.500000	393.548000 
394.000000	407.964000 
394.500000	394.713000 
395.000000	320.811000 
395.500000	399.035000 
396.000000	395.500000 
396.500000	430.601000 
397.000000	471.202000 
397.500000	456.457000 
398.000000	453.171000 
398.500000	420.884000 
399.000000	437.507000 
399.500000	387.510000 
400.000000	416.999000 
400.500000	379.512000 
401.000000	466.841000 
401.500000	457.177000 
402.000000	554.083999 
402.500000	476.768000 
403.000000	433.212000 
403.500000	455.495000 
404.000000	497.183000 
404.500000	466.677000 
405.000000	532.434000 
405.500000	493.533000 
406.000000	474.481000 
406.500000	467.628000 
407.000000	466.250000 
407.500000	520.600000 
408.000000	473.273000 
408.500000	424.173000 
409.000000	505.335000 
409.500000	415.123000 
410.000000	462.529000 
410.500000	488.550000 
411.000000	424.377000 
411.500000	509.512000 
412.000000	454.767000 
412.500000	424.760000 
413.000000	482.438000 
413.500000	411.160000 
414.000000	416.433000 
414.500000	427.605000 
415.000000	506.388000 
415.500000	454.762000 
416.000000	510.983000 
416.500000	394.713000 
417.000000	461.770000 
417.500000	453.880000 
418.000000	528.000000 
418.500000	410.050000 
419.000000	478.316000 
419.500000	419.719000 
420.000000	479.240000 
420.500000	500.339000 
421.000000	353.445000 
421.500000	380.081000 
422.000000	429.915000 
422.500000	435.881000 
423.000000	396.878000 
423.500000	431.651000 
424.000000	361.426000 
424.500000	453.373000 
425.000000	362.674000 
425.500000	340.098000 
426.000000	383.103000 
426.500000	373.924000 
427.000000	401.080000 
427.500000	376.959000 
428.000000	390.002000 
428.500000	375.636000 
429.000000	412.355000 
429.500000	321.364000 
430.000000	344.265000 
430.500000	375.027000 
431.000000	304.640000 
431.500000	379.681000 
432.000000	293.143000 
432.500000	324.470000 
433.000000	301.198000 
433.500000	295.252000 
434.000000	316.123000 
434.500000	229.634000 
435.000000	316.770000 
435.500000	285.609000 
436.000000	342.501000 
436.500000	267.331000 
437.000000	285.665000 
437.500000	297.660000 
438.000000	282.364000 
438.500000	304.146000 
439.000000	275.381000 
439.500000	276.076000 
440.000000	358.141000 
440.500000	248.999000 
441.000000	279.387000 
441.500000	248.863000 
442.000000	248.050000 
442.500000	282.089000 
443.000000	246.947000 
443.500000	233.579000 
444.000000	280.039000 
444.500000	248.494000 
445.000000	244.944000 
445.500000	261.636000 
446.000000	277.468000 
446.500000	189.367000 
447.000000	208.157000 
447.500000	200.511000 
448.000000	220.732000 
448.500000	220.005000 
449.000000	199.616000 
449.500000	235.416000 
450.000000	235.934000 
450.500000	218.484000 
451.000000	195.674000 
451.500000	200.530000 
452.000000	218.771000 
452.500000	189.194000 
453.000000	158.073000 
453.500000	158.166000 
454.000000	137.451000 
454.500000	163.202000 
455.000000	180.564000 
455.500000	157.242000 
456.000000	161.003000 
456.500000	196.156000 
457.000000	171.382000 
457.500000	158.173000 
458.000000	140.779000 
458.500000	118.689000 
459.000000	213.976000 
459.500000	171.190000 
460.000000	148.606000 
460.500000	136.563000 
461.000000	143.518000 
461.500000	112.797000 
462.000000	138.928000 
462.500000	142.267000 
463.000000	130.006000 
463.500000	149.541000 
464.000000	140.621000 
464.500000	123.983000 
465.000000	95.110000  
465.500000	95.761000  
466.000000	98.785000  
466.500000	82.443000  
467.000000	89.926000  
467.500000	137.945000 
468.000000	110.423000 
468.500000	81.421000  
469.000000	112.704000 
469.500000	91.812000  
470.000000	91.418000  
470.500000	108.680000 
471.000000	88.839000  
471.500000	89.452000  
472.000000	72.409000  
472.500000	90.958000  
473.000000	90.502000  
473.500000	58.446000  
474.000000	80.798000  
474.500000	66.986999  
475.000000	63.812000  
475.500000	71.947999  
476.000000	55.687000  
476.500000	66.837000  
477.000000	57.061000  
477.500000	67.809000  
478.000000	50.769000  
478.500000	49.198000  
479.000000	64.601000  
479.500000	51.484000  
480.000000	74.891000  
480.500000	65.702000  
481.000000	74.420000  
481.500000	63.482000  
482.000000	51.487000  
482.500000	52.186000  
483.000000	51.145000  
483.500000	44.679000  
484.000000	42.427000  
484.500000	63.927000  
485.000000	44.711000  
485.500000	44.566000  
486.000000	64.976000  
486.500000	36.906000  
487.000000	44.513000  
487.500000	25.886000  
488.000000	31.410000  
488.500000	45.501000  
489.000000	44.747000  
489.500000	35.513000  
490.000000	33.327000  
490.500000	50.424000  
491.000000	41.291000  
491.500000	53.091000  
492.000000	58.575000  
492.500000	48.717000  
493.000000	43.417000  
493.500000	31.409000  
494.000000	32.787000  
494.500000	27.315000  
495.000000	14.433000  
495.500000	26.828000  
496.000000	36.952000  
496.500000	26.898000  
497.000000	32.233000  
497.500000	27.390000  
498.000000	17.780000  
498.500000	26.811000  
499.000000	18.830000  
499.500000	17.830000  
500.000000	11.946000  
500.500000	18.474000  
501.000000	26.862000  
501.500000	25.002000  
502.000000	32.652000  
502.500000	27.654000  
503.000000	33.220000  
503.500000	18.554000  
504.000000	16.538000  
504.500000	17.129000  
505.000000	24.721000  
505.500000	16.734000  
506.000000	22.713000  
506.500000	17.761000  
507.000000	18.704000  
507.500000	18.905000  
508.000000	16.260000  
508.500000	15.587000  
509.000000	13.146000  
509.500000	9.569000   
510.000000	18.788000  
510.500000	21.827000  
511.000000	11.002000  
511.500000	18.537000  
512.000000	13.442000  
512.500000	18.405000  
513.000000	14.276000  
513.500000	17.030000  
514.000000	16.727000  
514.500000	15.908000  
515.000000	18.908000  
515.500000	19.226000  
516.000000	6.215000   
516.500000	14.359000  
517.000000	15.006000  
517.500000	15.346000  
518.000000	19.234000  
518.500000	5.561000   
519.000000	10.729000  
519.500000	13.553000  
520.000000	3.143000   
520.500000	11.580000  
521.000000	11.275000  
521.500000	10.926000  
522.000000	8.462000   
522.500000	15.154000  
523.000000	10.072000  
523.500000	13.093000  
524.000000	13.956000  
524.500000	0.299000   
525.000000	10.115000  
525.500000	1.785000   
526.000000	12.285000  
526.500000	16.734000  
527.000000	4.123000   
527.500000	4.646000   
528.000000	5.381000   
528.500000	2.889000   
529.000000	11.391000  
529.500000	7.543000   
530.000000	3.044000   
530.500000	5.200000   
531.000000	3.099000   
531.500000	3.440000   
532.000000	5.489000   
532.500000	5.487000   
533.000000	2.837000   
533.500000	4.856000   
534.000000	5.185000   
534.500000	5.106000   
535.000000	7.266000   
535.500000	0.000000   
536.000000	10.055000  
536.500000	3.307000   
537.000000	4.849000   
537.500000	11.459000  
538.000000	4.320000   
538.500000	3.470000   
539.000000	3.723000   
539.500000	8.141000   
540.000000	1.186000   
540.500000	2.279000   
541.000000	0.773000   
541.500000	3.307000   
542.000000	0.617000   
542.500000	7.733000   
543.000000	1.814000   
543.500000	1.485000   
544.000000	3.113000   
544.500000	2.398000   
545.000000	0.585000   
545.500000	0.000000   
546.000000	0.000000   
546.500000	0.000000   
547.000000	9.090000   
547.500000	3.909000   
548.000000	3.357000   
548.500000	-1.587000  
549.000000	0.000000   
549.500000	3.530000   
550.000000	2.276000   
550.500000	17.396000  

